Sample :	JVH-LS-isoBA-1M-2-2
Inject date :	Friday       28/01/22   13:05:26
Inject volume :	100.000	ul
Concentration :	  1.000	g/l
Project :	S:\Sci-Chem\PRD\GPC 112\2018-March\Projects\2018 March
Calibration :	C:\GPC-Data\Calibration\20220124.CAL
Method :	S:\Sci-Chem\PRD\GPC 112\2018-March\Methods\20180307_PSS.MET
Export file :	C:\Users\GPC112\Desktop\S:\Sci-Chem\PRD\GPC 112\2018-March\Projects\002_JVH-LS-isoBA-1M-3.txt

Operator :	GPC112
Account :	

Calibration MH-K :	 0.014100	ml/g	univ. Calibration MH-K :	 0.000000	ml/g
Calibration MH-A :	 0.700000	-	univ. Calibration MH-A :	 0.000000	-
Internal Standard Calibration :	 50.000	ml
Internal Standard Acquisition :	-------	ml
Data Interval :	  1.000	s

Eluent :	THF
Flow :	  1.000	ml/min

Column 1 :	Precolumn	Temperature :	  0.000	C
Column 2 :	PSS SDV 1000Å	Temperature :	  0.000	C

Detector 1 :	ELSD 1300	Delay :	  0.000	min

Baseline from :	  7.100	to :	  9.600	ml
Integration from :	  7.100	to :	  9.600	ml

	ELSD 1300
Mn:	  8.420E+3	g/mol
Mw:	  8.497E+3	g/mol
Mz:	  8.567E+3	g/mol
M(z+1):	  8.632E+3	g/mol
Mv:	  8.486E+3	g/mol
D:	  1.009E+0	
[n]:	  7.931E+0	ml/g
Vp:	  7.555E+0	ml
Mp:	  8.764E+3	g/mol
A:	  1.809E-2	ml*V
< 1298 :	      0.00	%
w% : 	    100.00	%
> 14725 :	      0.00	%

Calibration Coefficients:

Vol. min : 6.106170    
Vol. max : 10.703000   
R : 9.998392e-01
Fit : Polynom 3
Const.: 1.872475e+01
Coef.2: -4.462120e+00
Coef.3: 4.654950e-01
Coef.4: -1.771730e-02
Coef.5: 0.000000e+00
Coef.6: 0.000000e+00
Coef.7: 0.000000e+00
Coef.8: 0.000000e+00


Multi area report start :
Sample :	JVH-LS-isoBA-1M-2-2
Calibration:	C:\GPC-Data\Calibration\20220124.CAL
Print Date:	Friday       28/01/22   13:15:03
Project:	S:\Sci-Chem\PRD\GPC 112\2018-March\Projects\2018 March
Method:	S:\Sci-Chem\PRD\GPC 112\2018-March\Methods\20180307_PSS
MAS Parameters:	

Area	Name	from	to	Unit

1				
2				
3				
4				
5				
6				
7				
8				

 	Set 1	Set 2	Set 3	Set 4	Set 5	Set 6	Set 7	Set 8

 	-	-	-	-	-	-	-	-
 	-	-	-	-	-	-	-	-
 	-	-	-	-	-	-	-	-
 	-	-	-	-	-	-	-	-
 	-	-	-	-	-	-	-	-
 	-	-	-	-	-	-	-	-
 	-	-	-	-	-	-	-	-
 	-	-	-	-	-	-	-	-

Multi area report end :


HPLC report start :

Results for detector:	ELSD 1300

 Name	 xPMax [ml]	 yPMax [Volt]	 MPMax [Da]	 Area [V*ml]	 Area [%]	 Conc. [g/l]	 Conc. [%]	 V-Min [ml]	 V-Max [ml]	 V-Del [ml]	


HPLC report end :

RAWstart :
Volume	ELSD 1300	Time

  0.00000E+0	  1.99156E-2	 13:05:26:45	
  1.66667E-2	  1.99036E-2	 13:05:27:45	
  3.33333E-2	  1.99441E-2	 13:05:28:45	
  5.00000E-2	  1.99261E-2	 13:05:29:45	
  6.66667E-2	  1.98794E-2	 13:05:30:45	
  8.33333E-2	  1.98922E-2	 13:05:31:45	
  1.00000E-1	  1.99220E-2	 13:05:32:45	
  1.16667E-1	  1.98960E-2	 13:05:33:45	
  1.33333E-1	  1.98903E-2	 13:05:34:45	
  1.50000E-1	  1.98712E-2	 13:05:35:45	
  1.66667E-1	  1.99212E-2	 13:05:36:45	
  1.83333E-1	  1.99500E-2	 13:05:37:45	
  2.00000E-1	  1.99398E-2	 13:05:38:45	
  2.16667E-1	  1.99521E-2	 13:05:39:45	
  2.33333E-1	  1.99465E-2	 13:05:40:45	
  2.50000E-1	  1.99570E-2	 13:05:41:45	
  2.66667E-1	  1.99649E-2	 13:05:42:45	
  2.83333E-1	  1.99412E-2	 13:05:43:45	
  3.00000E-1	  1.99266E-2	 13:05:44:45	
  3.16667E-1	  1.99215E-2	 13:05:45:45	
  3.33333E-1	  1.99574E-2	 13:05:46:45	
  3.50000E-1	  1.99785E-2	 13:05:47:45	
  3.66667E-1	  1.99971E-2	 13:05:48:45	
  3.83333E-1	  1.99642E-2	 13:05:49:45	
  4.00000E-1	  1.99212E-2	 13:05:50:45	
  4.16667E-1	  1.99406E-2	 13:05:51:45	
  4.33333E-1	  1.99175E-2	 13:05:52:45	
  4.50000E-1	  1.99747E-2	 13:05:53:45	
  4.66667E-1	  1.99556E-2	 13:05:54:45	
  4.83333E-1	  1.99776E-2	 13:05:55:45	
  5.00000E-1	  1.99319E-2	 13:05:56:45	
  5.16667E-1	  1.98999E-2	 13:05:57:45	
  5.33333E-1	  1.98932E-2	 13:05:58:45	
  5.50000E-1	  1.98935E-2	 13:05:59:45	
  5.66667E-1	  1.99120E-2	 13:06:00:45	
  5.83333E-1	  1.99132E-2	 13:06:01:45	
  6.00000E-1	  1.98896E-2	 13:06:02:45	
  6.16667E-1	  1.98664E-2	 13:06:03:45	
  6.33333E-1	  1.98669E-2	 13:06:04:45	
  6.50000E-1	  1.98768E-2	 13:06:05:45	
  6.66667E-1	  1.98970E-2	 13:06:06:45	
  6.83333E-1	  1.99289E-2	 13:06:07:45	
  7.00000E-1	  1.99707E-2	 13:06:08:45	
  7.16667E-1	  2.00054E-2	 13:06:09:45	
  7.33333E-1	  2.00218E-2	 13:06:10:45	
  7.50000E-1	  2.00591E-2	 13:06:11:45	
  7.66667E-1	  2.00614E-2	 13:06:12:45	
  7.83333E-1	  2.00210E-2	 13:06:13:45	
  8.00000E-1	  1.99575E-2	 13:06:14:45	
  8.16667E-1	  1.98976E-2	 13:06:15:45	
  8.33333E-1	  1.99547E-2	 13:06:16:45	
  8.50000E-1	  2.00138E-2	 13:06:17:45	
  8.66667E-1	  2.00115E-2	 13:06:18:45	
  8.83333E-1	  1.99982E-2	 13:06:19:45	
  9.00000E-1	  1.99745E-2	 13:06:20:45	
  9.16667E-1	  1.99787E-2	 13:06:21:45	
  9.33333E-1	  1.99918E-2	 13:06:22:45	
  9.50000E-1	  2.00290E-2	 13:06:23:45	
  9.66667E-1	  2.00144E-2	 13:06:24:45	
  9.83333E-1	  2.00171E-2	 13:06:25:45	
  1.00000E+0	  2.00216E-2	 13:06:26:45	
  1.01667E+0	  1.99588E-2	 13:06:27:45	
  1.03333E+0	  1.99470E-2	 13:06:28:45	
  1.05000E+0	  1.99449E-2	 13:06:29:45	
  1.06667E+0	  1.99332E-2	 13:06:30:45	
  1.08333E+0	  1.99641E-2	 13:06:31:45	
  1.10000E+0	  1.99697E-2	 13:06:32:45	
  1.11667E+0	  1.99616E-2	 13:06:33:45	
  1.13333E+0	  1.99396E-2	 13:06:34:45	
  1.15000E+0	  1.99266E-2	 13:06:35:45	
  1.16667E+0	  1.99249E-2	 13:06:36:45	
  1.18333E+0	  1.99659E-2	 13:06:37:45	
  1.20000E+0	  1.99782E-2	 13:06:38:45	
  1.21667E+0	  2.00091E-2	 13:06:39:45	
  1.23333E+0	  2.00557E-2	 13:06:40:45	
  1.25000E+0	  2.00597E-2	 13:06:41:45	
  1.26667E+0	  2.00447E-2	 13:06:42:45	
  1.28333E+0	  2.00536E-2	 13:06:43:45	
  1.30000E+0	  2.00464E-2	 13:06:44:45	
  1.31667E+0	  1.99721E-2	 13:06:45:45	
  1.33333E+0	  1.99162E-2	 13:06:46:45	
  1.35000E+0	  1.99627E-2	 13:06:47:45	
  1.36667E+0	  2.00580E-2	 13:06:48:45	
  1.38333E+0	  2.00900E-2	 13:06:49:45	
  1.40000E+0	  2.00390E-2	 13:06:50:45	
  1.41667E+0	  1.99708E-2	 13:06:51:45	
  1.43333E+0	  1.99771E-2	 13:06:52:45	
  1.45000E+0	  1.99628E-2	 13:06:53:45	
  1.46667E+0	  1.99601E-2	 13:06:54:45	
  1.48333E+0	  1.99683E-2	 13:06:55:45	
  1.50000E+0	  1.99904E-2	 13:06:56:45	
  1.51667E+0	  2.00136E-2	 13:06:57:45	
  1.53333E+0	  2.00166E-2	 13:06:58:45	
  1.55000E+0	  1.99843E-2	 13:06:59:45	
  1.56667E+0	  1.99768E-2	 13:07:00:45	
  1.58333E+0	  1.99868E-2	 13:07:01:45	
  1.60000E+0	  2.00002E-2	 13:07:02:45	
  1.61667E+0	  2.00051E-2	 13:07:03:45	
  1.63333E+0	  2.00357E-2	 13:07:04:45	
  1.65000E+0	  2.01079E-2	 13:07:05:45	
  1.66667E+0	  2.01180E-2	 13:07:06:45	
  1.68333E+0	  2.00999E-2	 13:07:07:45	
  1.70000E+0	  2.00984E-2	 13:07:08:45	
  1.71667E+0	  2.01102E-2	 13:07:09:45	
  1.73333E+0	  2.00946E-2	 13:07:10:45	
  1.75000E+0	  2.00783E-2	 13:07:11:45	
  1.76667E+0	  2.00683E-2	 13:07:12:45	
  1.78333E+0	  2.00685E-2	 13:07:13:45	
  1.80000E+0	  2.00360E-2	 13:07:14:45	
  1.81667E+0	  2.00301E-2	 13:07:15:45	
  1.83333E+0	  2.01131E-2	 13:07:16:45	
  1.85000E+0	  2.01262E-2	 13:07:17:45	
  1.86667E+0	  2.00776E-2	 13:07:18:45	
  1.88333E+0	  2.00770E-2	 13:07:19:45	
  1.90000E+0	  2.00884E-2	 13:07:20:45	
  1.91667E+0	  2.00459E-2	 13:07:21:45	
  1.93333E+0	  2.00285E-2	 13:07:22:45	
  1.95000E+0	  1.99892E-2	 13:07:23:45	
  1.96667E+0	  2.00109E-2	 13:07:24:45	
  1.98333E+0	  2.00504E-2	 13:07:25:45	
  2.00000E+0	  2.00804E-2	 13:07:26:45	
  2.01667E+0	  2.00323E-2	 13:07:27:45	
  2.03333E+0	  1.99471E-2	 13:07:28:45	
  2.05000E+0	  1.99778E-2	 13:07:29:45	
  2.06667E+0	  1.99948E-2	 13:07:30:45	
  2.08333E+0	  1.99696E-2	 13:07:31:45	
  2.10000E+0	  1.99362E-2	 13:07:32:45	
  2.11667E+0	  1.99183E-2	 13:07:33:45	
  2.13333E+0	  1.99252E-2	 13:07:34:45	
  2.15000E+0	  1.99095E-2	 13:07:35:45	
  2.16667E+0	  1.99441E-2	 13:07:36:45	
  2.18333E+0	  1.99787E-2	 13:07:37:45	
  2.20000E+0	  1.99272E-2	 13:07:38:45	
  2.21667E+0	  1.99305E-2	 13:07:39:45	
  2.23333E+0	  1.99246E-2	 13:07:40:45	
  2.25000E+0	  1.99252E-2	 13:07:41:45	
  2.26667E+0	  1.99063E-2	 13:07:42:45	
  2.28333E+0	  1.99120E-2	 13:07:43:45	
  2.30000E+0	  1.99403E-2	 13:07:44:45	
  2.31667E+0	  1.99159E-2	 13:07:45:45	
  2.33333E+0	  1.98932E-2	 13:07:46:45	
  2.35000E+0	  1.98968E-2	 13:07:47:45	
  2.36667E+0	  1.99238E-2	 13:07:48:45	
  2.38333E+0	  1.99486E-2	 13:07:49:45	
  2.40000E+0	  1.99279E-2	 13:07:50:45	
  2.41667E+0	  1.99321E-2	 13:07:51:45	
  2.43333E+0	  1.98925E-2	 13:07:52:45	
  2.45000E+0	  1.98701E-2	 13:07:53:45	
  2.46667E+0	  1.99345E-2	 13:07:54:45	
  2.48333E+0	  2.00399E-2	 13:07:55:45	
  2.50000E+0	  2.00887E-2	 13:07:56:45	
  2.51667E+0	  2.01393E-2	 13:07:57:45	
  2.53333E+0	  2.01396E-2	 13:07:58:45	
  2.55000E+0	  2.01369E-2	 13:07:59:45	
  2.56667E+0	  2.01434E-2	 13:08:00:45	
  2.58333E+0	  2.01246E-2	 13:08:01:45	
  2.60000E+0	  2.00709E-2	 13:08:02:45	
  2.61667E+0	  2.00331E-2	 13:08:03:45	
  2.63333E+0	  2.00522E-2	 13:08:04:45	
  2.65000E+0	  2.00751E-2	 13:08:05:45	
  2.66667E+0	  2.00799E-2	 13:08:06:45	
  2.68333E+0	  2.00834E-2	 13:08:07:45	
  2.70000E+0	  2.05065E-2	 13:08:08:45	
  2.71667E+0	  2.25138E-2	 13:08:09:45	
  2.73333E+0	  2.25593E-2	 13:08:10:45	
  2.75000E+0	  2.13640E-2	 13:08:11:45	
  2.76667E+0	  2.06433E-2	 13:08:12:45	
  2.78333E+0	  2.03423E-2	 13:08:13:45	
  2.80000E+0	  2.02275E-2	 13:08:14:45	
  2.81667E+0	  2.01947E-2	 13:08:15:45	
  2.83333E+0	  2.02002E-2	 13:08:16:45	
  2.85000E+0	  2.02016E-2	 13:08:17:45	
  2.86667E+0	  2.01830E-2	 13:08:18:45	
  2.88333E+0	  2.01851E-2	 13:08:19:45	
  2.90000E+0	  2.01731E-2	 13:08:20:45	
  2.91667E+0	  2.01753E-2	 13:08:21:45	
  2.93333E+0	  2.01665E-2	 13:08:22:45	
  2.95000E+0	  2.01362E-2	 13:08:23:45	
  2.96667E+0	  2.01454E-2	 13:08:24:45	
  2.98333E+0	  2.01481E-2	 13:08:25:45	
  3.00000E+0	  2.01347E-2	 13:08:26:45	
  3.01667E+0	  2.01334E-2	 13:08:27:45	
  3.03333E+0	  2.01350E-2	 13:08:28:45	
  3.05000E+0	  2.01282E-2	 13:08:29:45	
  3.06667E+0	  2.01419E-2	 13:08:30:45	
  3.08333E+0	  2.01433E-2	 13:08:31:45	
  3.10000E+0	  2.01434E-2	 13:08:32:45	
  3.11667E+0	  2.01041E-2	 13:08:33:45	
  3.13333E+0	  2.01225E-2	 13:08:34:45	
  3.15000E+0	  2.01162E-2	 13:08:35:45	
  3.16667E+0	  2.01254E-2	 13:08:36:45	
  3.18333E+0	  2.01827E-2	 13:08:37:45	
  3.20000E+0	  2.01915E-2	 13:08:38:45	
  3.21667E+0	  2.02190E-2	 13:08:39:45	
  3.23333E+0	  2.01737E-2	 13:08:40:45	
  3.25000E+0	  2.01382E-2	 13:08:41:45	
  3.26667E+0	  2.01521E-2	 13:08:42:45	
  3.28333E+0	  2.01191E-2	 13:08:43:45	
  3.30000E+0	  2.00762E-2	 13:08:44:45	
  3.31667E+0	  2.00650E-2	 13:08:45:45	
  3.33333E+0	  2.00786E-2	 13:08:46:45	
  3.35000E+0	  2.01257E-2	 13:08:47:45	
  3.36667E+0	  2.01483E-2	 13:08:48:45	
  3.38333E+0	  2.01603E-2	 13:08:49:45	
  3.40000E+0	  2.01617E-2	 13:08:50:45	
  3.41667E+0	  2.01191E-2	 13:08:51:45	
  3.43333E+0	  2.01408E-2	 13:08:52:45	
  3.45000E+0	  2.01226E-2	 13:08:53:45	
  3.46667E+0	  2.01254E-2	 13:08:54:45	
  3.48333E+0	  2.01385E-2	 13:08:55:45	
  3.50000E+0	  2.01910E-2	 13:08:56:45	
  3.51667E+0	  2.02082E-2	 13:08:57:45	
  3.53333E+0	  2.02322E-2	 13:08:58:45	
  3.55000E+0	  2.03198E-2	 13:08:59:45	
  3.56667E+0	  2.07597E-2	 13:09:00:45	
  3.58333E+0	  2.07971E-2	 13:09:01:45	
  3.60000E+0	  2.04359E-2	 13:09:02:45	
  3.61667E+0	  2.02389E-2	 13:09:03:45	
  3.63333E+0	  2.01522E-2	 13:09:04:45	
  3.65000E+0	  2.01488E-2	 13:09:05:45	
  3.66667E+0	  2.01159E-2	 13:09:06:45	
  3.68333E+0	  2.00882E-2	 13:09:07:45	
  3.70000E+0	  2.00748E-2	 13:09:08:45	
  3.71667E+0	  2.00938E-2	 13:09:09:45	
  3.73333E+0	  2.01321E-2	 13:09:10:45	
  3.75000E+0	  2.01347E-2	 13:09:11:45	
  3.76667E+0	  2.01334E-2	 13:09:12:45	
  3.78333E+0	  2.01417E-2	 13:09:13:45	
  3.80000E+0	  2.00804E-2	 13:09:14:45	
  3.81667E+0	  2.00874E-2	 13:09:15:45	
  3.83333E+0	  2.01595E-2	 13:09:16:45	
  3.85000E+0	  2.01681E-2	 13:09:17:45	
  3.86667E+0	  2.01159E-2	 13:09:18:45	
  3.88333E+0	  2.00542E-2	 13:09:19:45	
  3.90000E+0	  2.00894E-2	 13:09:20:45	
  3.91667E+0	  2.00912E-2	 13:09:21:45	
  3.93333E+0	  2.01208E-2	 13:09:22:45	
  3.95000E+0	  2.01367E-2	 13:09:23:45	
  3.96667E+0	  2.01521E-2	 13:09:24:45	
  3.98333E+0	  2.02213E-2	 13:09:25:45	
  4.00000E+0	  2.02126E-2	 13:09:26:45	
  4.01667E+0	  2.01508E-2	 13:09:27:45	
  4.03333E+0	  2.01539E-2	 13:09:28:45	
  4.05000E+0	  2.01718E-2	 13:09:29:45	
  4.06667E+0	  2.02157E-2	 13:09:30:45	
  4.08333E+0	  2.02349E-2	 13:09:31:45	
  4.10000E+0	  2.01534E-2	 13:09:32:45	
  4.11667E+0	  2.01116E-2	 13:09:33:45	
  4.13333E+0	  2.01305E-2	 13:09:34:45	
  4.15000E+0	  2.01707E-2	 13:09:35:45	
  4.16667E+0	  2.01681E-2	 13:09:36:45	
  4.18333E+0	  2.01465E-2	 13:09:37:45	
  4.20000E+0	  2.01026E-2	 13:09:38:45	
  4.21667E+0	  2.00645E-2	 13:09:39:45	
  4.23333E+0	  2.01400E-2	 13:09:40:45	
  4.25000E+0	  2.02378E-2	 13:09:41:45	
  4.26667E+0	  2.02107E-2	 13:09:42:45	
  4.28333E+0	  2.01715E-2	 13:09:43:45	
  4.30000E+0	  2.01854E-2	 13:09:44:45	
  4.31667E+0	  2.01406E-2	 13:09:45:45	
  4.33333E+0	  2.00573E-2	 13:09:46:45	
  4.35000E+0	  2.00504E-2	 13:09:47:45	
  4.36667E+0	  2.00974E-2	 13:09:48:45	
  4.38333E+0	  2.01082E-2	 13:09:49:45	
  4.40000E+0	  2.01015E-2	 13:09:50:45	
  4.41667E+0	  2.00863E-2	 13:09:51:45	
  4.43333E+0	  2.00562E-2	 13:09:52:45	
  4.45000E+0	  2.01097E-2	 13:09:53:45	
  4.46667E+0	  2.02080E-2	 13:09:54:45	
  4.48333E+0	  2.02365E-2	 13:09:55:45	
  4.50000E+0	  2.01670E-2	 13:09:56:45	
  4.51667E+0	  2.01452E-2	 13:09:57:45	
  4.53333E+0	  2.01941E-2	 13:09:58:45	
  4.55000E+0	  2.01811E-2	 13:09:59:45	
  4.56667E+0	  2.01345E-2	 13:10:00:45	
  4.58333E+0	  2.01507E-2	 13:10:01:45	
  4.60000E+0	  2.01651E-2	 13:10:02:45	
  4.61667E+0	  2.01412E-2	 13:10:03:45	
  4.63333E+0	  2.01707E-2	 13:10:04:45	
  4.65000E+0	  2.02172E-2	 13:10:05:45	
  4.66667E+0	  2.02232E-2	 13:10:06:45	
  4.68333E+0	  2.02269E-2	 13:10:07:45	
  4.70000E+0	  2.02096E-2	 13:10:08:45	
  4.71667E+0	  2.01795E-2	 13:10:09:45	
  4.73333E+0	  2.01734E-2	 13:10:10:45	
  4.75000E+0	  2.01784E-2	 13:10:11:45	
  4.76667E+0	  2.01902E-2	 13:10:12:45	
  4.78333E+0	  2.02053E-2	 13:10:13:45	
  4.80000E+0	  2.02339E-2	 13:10:14:45	
  4.81667E+0	  2.07142E-2	 13:10:15:45	
  4.83333E+0	  2.08364E-2	 13:10:16:45	
  4.85000E+0	  2.05011E-2	 13:10:17:45	
  4.86667E+0	  2.03039E-2	 13:10:18:45	
  4.88333E+0	  2.02139E-2	 13:10:19:45	
  4.90000E+0	  2.01069E-2	 13:10:20:45	
  4.91667E+0	  2.00938E-2	 13:10:21:45	
  4.93333E+0	  2.00914E-2	 13:10:22:45	
  4.95000E+0	  2.00884E-2	 13:10:23:45	
  4.96667E+0	  2.00493E-2	 13:10:24:45	
  4.98333E+0	  2.00198E-2	 13:10:25:45	
  5.00000E+0	  2.00048E-2	 13:10:26:45	
  5.01667E+0	  1.99932E-2	 13:10:27:45	
  5.03333E+0	  2.00308E-2	 13:10:28:45	
  5.05000E+0	  2.00840E-2	 13:10:29:45	
  5.06667E+0	  2.00863E-2	 13:10:30:45	
  5.08333E+0	  2.00528E-2	 13:10:31:45	
  5.10000E+0	  2.00536E-2	 13:10:32:45	
  5.11667E+0	  2.01517E-2	 13:10:33:45	
  5.13333E+0	  2.01984E-2	 13:10:34:45	
  5.15000E+0	  2.00981E-2	 13:10:35:45	
  5.16667E+0	  2.00331E-2	 13:10:36:45	
  5.18333E+0	  1.99706E-2	 13:10:37:45	
  5.20000E+0	  1.99891E-2	 13:10:38:45	
  5.21667E+0	  2.00237E-2	 13:10:39:45	
  5.23333E+0	  2.00233E-2	 13:10:40:45	
  5.25000E+0	  2.00370E-2	 13:10:41:45	
  5.26667E+0	  2.00552E-2	 13:10:42:45	
  5.28333E+0	  2.00328E-2	 13:10:43:45	
  5.30000E+0	  2.00437E-2	 13:10:44:45	
  5.31667E+0	  2.00516E-2	 13:10:45:45	
  5.33333E+0	  2.00773E-2	 13:10:46:45	
  5.35000E+0	  2.00560E-2	 13:10:47:45	
  5.36667E+0	  2.00501E-2	 13:10:48:45	
  5.38333E+0	  2.00855E-2	 13:10:49:45	
  5.40000E+0	  2.00796E-2	 13:10:50:45	
  5.41667E+0	  2.01007E-2	 13:10:51:45	
  5.43333E+0	  2.00946E-2	 13:10:52:45	
  5.45000E+0	  2.00884E-2	 13:10:53:45	
  5.46667E+0	  2.00696E-2	 13:10:54:45	
  5.48333E+0	  2.00328E-2	 13:10:55:45	
  5.50000E+0	  2.00301E-2	 13:10:56:45	
  5.51667E+0	  2.00418E-2	 13:10:57:45	
  5.53333E+0	  2.00756E-2	 13:10:58:45	
  5.55000E+0	  2.00355E-2	 13:10:59:45	
  5.56667E+0	  1.99963E-2	 13:11:00:45	
  5.58333E+0	  1.99934E-2	 13:11:01:45	
  5.60000E+0	  1.99950E-2	 13:11:02:45	
  5.61667E+0	  2.00189E-2	 13:11:03:45	
  5.63333E+0	  2.00573E-2	 13:11:04:45	
  5.65000E+0	  2.00666E-2	 13:11:05:45	
  5.66667E+0	  2.00514E-2	 13:11:06:45	
  5.68333E+0	  2.00517E-2	 13:11:07:45	
  5.70000E+0	  2.00993E-2	 13:11:08:45	
  5.71667E+0	  2.01507E-2	 13:11:09:45	
  5.73333E+0	  2.01684E-2	 13:11:10:45	
  5.75000E+0	  2.01632E-2	 13:11:11:45	
  5.76667E+0	  2.00954E-2	 13:11:12:45	
  5.78333E+0	  2.01161E-2	 13:11:13:45	
  5.80000E+0	  2.01298E-2	 13:11:14:45	
  5.81667E+0	  2.01658E-2	 13:11:15:45	
  5.83333E+0	  2.01817E-2	 13:11:16:45	
  5.85000E+0	  2.01596E-2	 13:11:17:45	
  5.86667E+0	  2.01739E-2	 13:11:18:45	
  5.88333E+0	  2.01306E-2	 13:11:19:45	
  5.90000E+0	  2.01627E-2	 13:11:20:45	
  5.91667E+0	  2.01933E-2	 13:11:21:45	
  5.93333E+0	  2.01167E-2	 13:11:22:45	
  5.95000E+0	  2.00528E-2	 13:11:23:45	
  5.96667E+0	  2.00365E-2	 13:11:24:45	
  5.98333E+0	  2.00690E-2	 13:11:25:45	
  6.00000E+0	  2.00850E-2	 13:11:26:45	
  6.01667E+0	  2.01225E-2	 13:11:27:45	
  6.03333E+0	  2.00959E-2	 13:11:28:45	
  6.05000E+0	  2.00445E-2	 13:11:29:45	
  6.06667E+0	  2.00573E-2	 13:11:30:45	
  6.08333E+0	  2.00938E-2	 13:11:31:45	
  6.10000E+0	  2.01254E-2	 13:11:32:45	
  6.11667E+0	  2.01215E-2	 13:11:33:45	
  6.13333E+0	  2.01185E-2	 13:11:34:45	
  6.15000E+0	  2.01133E-2	 13:11:35:45	
  6.16667E+0	  2.00658E-2	 13:11:36:45	
  6.18333E+0	  2.00517E-2	 13:11:37:45	
  6.20000E+0	  2.00176E-2	 13:11:38:45	
  6.21667E+0	  2.00171E-2	 13:11:39:45	
  6.23333E+0	  2.00352E-2	 13:11:40:45	
  6.25000E+0	  2.00298E-2	 13:11:41:45	
  6.26667E+0	  2.00182E-2	 13:11:42:45	
  6.28333E+0	  2.00389E-2	 13:11:43:45	
  6.30000E+0	  2.00704E-2	 13:11:44:45	
  6.31667E+0	  2.00969E-2	 13:11:45:45	
  6.33333E+0	  2.01220E-2	 13:11:46:45	
  6.35000E+0	  2.01845E-2	 13:11:47:45	
  6.36667E+0	  2.01931E-2	 13:11:48:45	
  6.38333E+0	  2.01715E-2	 13:11:49:45	
  6.40000E+0	  2.01242E-2	 13:11:50:45	
  6.41667E+0	  2.00608E-2	 13:11:51:45	
  6.43333E+0	  2.00469E-2	 13:11:52:45	
  6.45000E+0	  2.00296E-2	 13:11:53:45	
  6.46667E+0	  2.00506E-2	 13:11:54:45	
  6.48333E+0	  2.00719E-2	 13:11:55:45	
  6.50000E+0	  2.00989E-2	 13:11:56:45	
  6.51667E+0	  2.00829E-2	 13:11:57:45	
  6.53333E+0	  2.01244E-2	 13:11:58:45	
  6.55000E+0	  2.01635E-2	 13:11:59:45	
  6.56667E+0	  2.01904E-2	 13:12:00:45	
  6.58333E+0	  2.01660E-2	 13:12:01:45	
  6.60000E+0	  2.01127E-2	 13:12:02:45	
  6.61667E+0	  2.01154E-2	 13:12:03:45	
  6.63333E+0	  2.01964E-2	 13:12:04:45	
  6.65000E+0	  2.02232E-2	 13:12:05:45	
  6.66667E+0	  2.02234E-2	 13:12:06:45	
  6.68333E+0	  2.02115E-2	 13:12:07:45	
  6.70000E+0	  2.02085E-2	 13:12:08:45	
  6.71667E+0	  2.01931E-2	 13:12:09:45	
  6.73333E+0	  2.02123E-2	 13:12:10:45	
  6.75000E+0	  2.01910E-2	 13:12:11:45	
  6.76667E+0	  2.01648E-2	 13:12:12:45	
  6.78333E+0	  2.01702E-2	 13:12:13:45	
  6.80000E+0	  2.01819E-2	 13:12:14:45	
  6.81667E+0	  2.01782E-2	 13:12:15:45	
  6.83333E+0	  2.02192E-2	 13:12:16:45	
  6.85000E+0	  2.02706E-2	 13:12:17:45	
  6.86667E+0	  2.07269E-2	 13:12:18:45	
  6.88333E+0	  2.32266E-2	 13:12:19:45	
  6.90000E+0	  2.33326E-2	 13:12:20:45	
  6.91667E+0	  2.18618E-2	 13:12:21:45	
  6.93333E+0	  2.09531E-2	 13:12:22:45	
  6.95000E+0	  2.06242E-2	 13:12:23:45	
  6.96667E+0	  2.05446E-2	 13:12:24:45	
  6.98333E+0	  2.04738E-2	 13:12:25:45	
  7.00000E+0	  2.04484E-2	 13:12:26:45	
  7.01667E+0	  2.04501E-2	 13:12:27:45	
  7.03333E+0	  2.04738E-2	 13:12:28:45	
  7.05000E+0	  2.05427E-2	 13:12:29:45	
  7.06667E+0	  2.05632E-2	 13:12:30:45	
  7.08333E+0	  2.05464E-2	 13:12:31:45	
  7.10000E+0	  2.05435E-2	 13:12:32:45	
  7.11667E+0	  2.05994E-2	 13:12:33:45	
  7.13333E+0	  2.06080E-2	 13:12:34:45	
  7.15000E+0	  2.05627E-2	 13:12:35:45	
  7.16667E+0	  2.06096E-2	 13:12:36:45	
  7.18333E+0	  2.05890E-2	 13:12:37:45	
  7.20000E+0	  2.05071E-2	 13:12:38:45	
  7.21667E+0	  2.04426E-2	 13:12:39:45	
  7.23333E+0	  2.04352E-2	 13:12:40:45	
  7.25000E+0	  2.04026E-2	 13:12:41:45	
  7.26667E+0	  2.03306E-2	 13:12:42:45	
  7.28333E+0	  2.02879E-2	 13:12:43:45	
  7.30000E+0	  2.03480E-2	 13:12:44:45	
  7.31667E+0	  2.04276E-2	 13:12:45:45	
  7.33333E+0	  2.05419E-2	 13:12:46:45	
  7.35000E+0	  2.07381E-2	 13:12:47:45	
  7.36667E+0	  2.12079E-2	 13:12:48:45	
  7.38333E+0	  2.19491E-2	 13:12:49:45	
  7.40000E+0	  2.33557E-2	 13:12:50:45	
  7.41667E+0	  2.59622E-2	 13:12:51:45	
  7.43333E+0	  3.06274E-2	 13:12:52:45	
  7.45000E+0	  3.77099E-2	 13:12:53:45	
  7.46667E+0	  4.76336E-2	 13:12:54:45	
  7.48333E+0	  6.18708E-2	 13:12:55:45	
  7.50000E+0	  7.91735E-2	 13:12:56:45	
  7.51667E+0	  9.74062E-2	 13:12:57:45	
  7.53333E+0	  1.11602E-1	 13:12:58:45	
  7.55000E+0	  1.19474E-1	 13:12:59:45	
  7.56667E+0	  1.21066E-1	 13:13:00:45	
  7.58333E+0	  1.15609E-1	 13:13:01:45	
  7.60000E+0	  1.05525E-1	 13:13:02:45	
  7.61667E+0	  9.30758E-2	 13:13:03:45	
  7.63333E+0	  8.05616E-2	 13:13:04:45	
  7.65000E+0	  6.93810E-2	 13:13:05:45	
  7.66667E+0	  5.99539E-2	 13:13:06:45	
  7.68333E+0	  5.19399E-2	 13:13:07:45	
  7.70000E+0	  4.48453E-2	 13:13:08:45	
  7.71667E+0	  3.92584E-2	 13:13:09:45	
  7.73333E+0	  3.51100E-2	 13:13:10:45	
  7.75000E+0	  3.19821E-2	 13:13:11:45	
  7.76667E+0	  2.95993E-2	 13:13:12:45	
  7.78333E+0	  2.78816E-2	 13:13:13:45	
  7.80000E+0	  2.64649E-2	 13:13:14:45	
  7.81667E+0	  2.53756E-2	 13:13:15:45	
  7.83333E+0	  2.45192E-2	 13:13:16:45	
  7.85000E+0	  2.38316E-2	 13:13:17:45	
  7.86667E+0	  2.32151E-2	 13:13:18:45	
  7.88333E+0	  2.26833E-2	 13:13:19:45	
  7.90000E+0	  2.23482E-2	 13:13:20:45	
  7.91667E+0	  2.21189E-2	 13:13:21:45	
  7.93333E+0	  2.19243E-2	 13:13:22:45	
  7.95000E+0	  2.17291E-2	 13:13:23:45	
  7.96667E+0	  2.15597E-2	 13:13:24:45	
  7.98333E+0	  2.14285E-2	 13:13:25:45	
  8.00000E+0	  2.12948E-2	 13:13:26:45	
  8.01667E+0	  2.11752E-2	 13:13:27:45	
  8.03333E+0	  2.10551E-2	 13:13:28:45	
  8.05000E+0	  2.09470E-2	 13:13:29:45	
  8.06667E+0	  2.09083E-2	 13:13:30:45	
  8.08333E+0	  2.08506E-2	 13:13:31:45	
  8.10000E+0	  2.07909E-2	 13:13:32:45	
  8.11667E+0	  2.07105E-2	 13:13:33:45	
  8.13333E+0	  2.06834E-2	 13:13:34:45	
  8.15000E+0	  2.06271E-2	 13:13:35:45	
  8.16667E+0	  2.06000E-2	 13:13:36:45	
  8.18333E+0	  2.06204E-2	 13:13:37:45	
  8.20000E+0	  2.05620E-2	 13:13:38:45	
  8.21667E+0	  2.04993E-2	 13:13:39:45	
  8.23333E+0	  2.04306E-2	 13:13:40:45	
  8.25000E+0	  2.04288E-2	 13:13:41:45	
  8.26667E+0	  2.04671E-2	 13:13:42:45	
  8.28333E+0	  2.04663E-2	 13:13:43:45	
  8.30000E+0	  2.04974E-2	 13:13:44:45	
  8.31667E+0	  2.05014E-2	 13:13:45:45	
  8.33333E+0	  2.04405E-2	 13:13:46:45	
  8.35000E+0	  2.03946E-2	 13:13:47:45	
  8.36667E+0	  2.03646E-2	 13:13:48:45	
  8.38333E+0	  2.03515E-2	 13:13:49:45	
  8.40000E+0	  2.03635E-2	 13:13:50:45	
  8.41667E+0	  2.03632E-2	 13:13:51:45	
  8.43333E+0	  2.03226E-2	 13:13:52:45	
  8.45000E+0	  2.02812E-2	 13:13:53:45	
  8.46667E+0	  2.02735E-2	 13:13:54:45	
  8.48333E+0	  2.02309E-2	 13:13:55:45	
  8.50000E+0	  2.02815E-2	 13:13:56:45	
  8.51667E+0	  2.03491E-2	 13:13:57:45	
  8.53333E+0	  2.03412E-2	 13:13:58:45	
  8.55000E+0	  2.03129E-2	 13:13:59:45	
  8.56667E+0	  2.03015E-2	 13:14:00:45	
  8.58333E+0	  2.02830E-2	 13:14:01:45	
  8.60000E+0	  2.03193E-2	 13:14:02:45	
  8.61667E+0	  2.03332E-2	 13:14:03:45	
  8.63333E+0	  2.03504E-2	 13:14:04:45	
  8.65000E+0	  2.03601E-2	 13:14:05:45	
  8.66667E+0	  2.03396E-2	 13:14:06:45	
  8.68333E+0	  2.03504E-2	 13:14:07:45	
  8.70000E+0	  2.03124E-2	 13:14:08:45	
  8.71667E+0	  2.02900E-2	 13:14:09:45	
  8.73333E+0	  2.02799E-2	 13:14:10:45	
  8.75000E+0	  2.03499E-2	 13:14:11:45	
  8.76667E+0	  2.03170E-2	 13:14:12:45	
  8.78333E+0	  2.02035E-2	 13:14:13:45	
  8.80000E+0	  2.01175E-2	 13:14:14:45	
  8.81667E+0	  2.01393E-2	 13:14:15:45	
  8.83333E+0	  2.01803E-2	 13:14:16:45	
  8.85000E+0	  2.02343E-2	 13:14:17:45	
  8.86667E+0	  2.02890E-2	 13:14:18:45	
  8.88333E+0	  2.02370E-2	 13:14:19:45	
  8.90000E+0	  2.02253E-2	 13:14:20:45	
  8.91667E+0	  2.02418E-2	 13:14:21:45	
  8.93333E+0	  2.02416E-2	 13:14:22:45	
  8.95000E+0	  2.02264E-2	 13:14:23:45	
  8.96667E+0	  2.02133E-2	 13:14:24:45	
  8.98333E+0	  2.01931E-2	 13:14:25:45	
  9.00000E+0	  2.02258E-2	 13:14:26:45	
  9.01667E+0	  2.02892E-2	 13:14:27:45	
  9.03333E+0	  2.03270E-2	 13:14:28:45	
  9.05000E+0	  2.03385E-2	 13:14:29:45	
  9.06667E+0	  2.03366E-2	 13:14:30:45	
  9.08333E+0	  2.02738E-2	 13:14:31:45	
  9.10000E+0	  2.02179E-2	 13:14:32:45	
  9.11667E+0	  2.02663E-2	 13:14:33:45	
  9.13333E+0	  2.02406E-2	 13:14:34:45	
  9.15000E+0	  2.02184E-2	 13:14:35:45	
  9.16667E+0	  2.02370E-2	 13:14:36:45	
  9.18333E+0	  2.02620E-2	 13:14:37:45	
  9.20000E+0	  2.02972E-2	 13:14:38:45	
  9.21667E+0	  2.03201E-2	 13:14:39:45	
  9.23333E+0	  2.03522E-2	 13:14:40:45	
  9.25000E+0	  2.03582E-2	 13:14:41:45	
  9.26667E+0	  2.03074E-2	 13:14:42:45	
  9.28333E+0	  2.02815E-2	 13:14:43:45	
  9.30000E+0	  2.02698E-2	 13:14:44:45	
  9.31667E+0	  2.02208E-2	 13:14:45:45	
  9.33333E+0	  2.02306E-2	 13:14:46:45	
  9.35000E+0	  2.02823E-2	 13:14:47:45	
  9.36667E+0	  2.02695E-2	 13:14:48:45	
  9.38333E+0	  2.02993E-2	 13:14:49:45	
  9.40000E+0	  2.02996E-2	 13:14:50:45	
  9.41667E+0	  2.02525E-2	 13:14:51:45	
  9.43333E+0	  2.02452E-2	 13:14:52:45	
  9.45000E+0	  2.02602E-2	 13:14:53:45	
  9.46667E+0	  2.02855E-2	 13:14:54:45	
  9.48333E+0	  2.02882E-2	 13:14:55:45	
  9.50000E+0	  2.03190E-2	 13:14:56:45	
  9.51667E+0	  2.03079E-2	 13:14:57:45	
  9.53333E+0	  2.03222E-2	 13:14:58:45	
  9.55000E+0	  2.03281E-2	 13:14:59:45	
  9.56667E+0	  2.03589E-2	 13:15:00:45	
  9.58333E+0	  2.04124E-2	 13:15:01:45	
  9.60000E+0	  2.04639E-2	 13:15:02:45	
RAWstop :

ELUstart :
Volume	Molar mass	ELSD 1300	Integral[%]

  7.10000E+0	  1.47259E+4	  0.00000E+0	
  7.11645E+0	  1.44334E+4	  5.54056E-5	
  7.13289E+0	  1.41481E+4	  6.61742E-5	
  7.14934E+0	  1.38700E+4	  2.29039E-5	
  7.16579E+0	  1.35987E+4	  6.31718E-5	
  7.18224E+0	  1.33342E+4	  5.30648E-5	
  7.19868E+0	  1.30761E+4	  9.73869E-6	
  7.21513E+0	  1.28244E+4	  0.00000E+0	
  7.23158E+0	  1.25788E+4	  0.00000E+0	
  7.24803E+0	  1.23392E+4	  0.00000E+0	
  7.26447E+0	  1.21054E+4	  0.00000E+0	
  7.28092E+0	  1.18771E+4	  0.00000E+0	
  7.29737E+0	  1.16543E+4	  0.00000E+0	
  7.31382E+0	  1.14368E+4	  0.00000E+0	
  7.33026E+0	  1.12244E+4	  2.43695E-5	
  7.34671E+0	  1.10170E+4	  1.58005E-4	
  7.36316E+0	  1.08144E+4	  5.49591E-4	
  7.37961E+0	  1.06166E+4	  1.23229E-3	
  7.39605E+0	  1.04233E+4	  2.42253E-3	
  7.41250E+0	  1.02344E+4	  4.66861E-3	
  7.42895E+0	  1.00499E+4	  8.66545E-3	
  7.44539E+0	  9.86957E+3	  1.50055E-2	
  7.46184E+0	  9.69332E+3	  2.39478E-2	
  7.47829E+0	  9.52103E+3	  3.65547E-2	
  7.49474E+0	  9.35259E+3	  5.29568E-2	
  7.51118E+0	  9.18791E+3	  7.08429E-2	
  7.52763E+0	  9.02686E+3	  8.68826E-2	
  7.54408E+0	  8.86937E+3	  9.68790E-2	
  7.56053E+0	  8.71532E+3	  1.00683E-1	
  7.57697E+0	  8.56462E+3	  9.80720E-2	
  7.59342E+0	  8.41719E+3	  8.93945E-2	
  7.60987E+0	  8.27294E+3	  7.78777E-2	
  7.62632E+0	  8.13177E+3	  6.51948E-2	
  7.64276E+0	  7.99361E+3	  5.34899E-2	
  7.65921E+0	  7.85838E+3	  4.33829E-2	
  7.67566E+0	  7.72600E+3	  3.49264E-2	
  7.69211E+0	  7.59640E+3	  2.75630E-2	
  7.70855E+0	  7.46949E+3	  2.11659E-2	
  7.72500E+0	  7.34522E+3	  1.64614E-2	
  7.74145E+0	  7.22350E+3	  1.29139E-2	
  7.75789E+0	  7.10429E+3	  1.02188E-2	
  7.77434E+0	  6.98750E+3	  8.17144E-3	
  7.79079E+0	  6.87308E+3	  6.70330E-3	
  7.80724E+0	  6.76097E+3	  5.39483E-3	
  7.82368E+0	  6.65110E+3	  4.46769E-3	
  7.84013E+0	  6.54342E+3	  3.68466E-3	
  7.85658E+0	  6.43788E+3	  3.06495E-3	
  7.87303E+0	  6.33442E+3	  2.47053E-3	
  7.88947E+0	  6.23299E+3	  1.99393E-3	
  7.90592E+0	  6.13353E+3	  1.73959E-3	
  7.92237E+0	  6.03600E+3	  1.52872E-3	
  7.93882E+0	  5.94035E+3	  1.34648E-3	
  7.95526E+0	  5.84653E+3	  1.14966E-3	
  7.97171E+0	  5.75451E+3	  9.97058E-4	
  7.98816E+0	  5.66423E+3	  8.78452E-4	
  8.00461E+0	  5.57565E+3	  7.41358E-4	
  8.02105E+0	  5.48872E+3	  6.32043E-4	
  8.03750E+0	  5.40342E+3	  5.10184E-4	
  8.05395E+0	  5.31969E+3	  4.10158E-4	
  8.07039E+0	  5.23751E+3	  3.93467E-4	
  8.08684E+0	  5.15683E+3	  3.21651E-4	
  8.10329E+0	  5.07762E+3	  2.69471E-4	
  8.11974E+0	  4.99984E+3	  1.81952E-4	
  8.13618E+0	  4.92346E+3	  1.73664E-4	
  8.15263E+0	  4.84845E+3	  1.03730E-4	
  8.16908E+0	  4.77477E+3	  9.04851E-5	
  8.18553E+0	  4.70240E+3	  1.15437E-4	
  8.20197E+0	  4.63130E+3	  4.16819E-5	
  8.21842E+0	  4.56144E+3	  4.63909E-6	
  8.23487E+0	  4.49279E+3	  0.00000E+0	
  8.25132E+0	  4.42533E+3	  0.00000E+0	
  8.26776E+0	  4.35903E+3	  0.00000E+0	
  8.28421E+0	  4.29386E+3	  0.00000E+0	
  8.30066E+0	  4.22980E+3	  7.11222E-6	
  8.31711E+0	  4.16682E+3	  2.90316E-6	
  8.33355E+0	  4.10490E+3	  0.00000E+0	
  8.35000E+0	  4.04401E+3	  0.00000E+0	
  8.36645E+0	  3.98414E+3	  0.00000E+0	
  8.38289E+0	  3.92525E+3	  0.00000E+0	
  8.39934E+0	  3.86732E+3	  0.00000E+0	
  8.41579E+0	  3.81035E+3	  0.00000E+0	
  8.43224E+0	  3.75429E+3	  0.00000E+0	
  8.44868E+0	  3.69915E+3	  0.00000E+0	
  8.46513E+0	  3.64488E+3	  0.00000E+0	
  8.48158E+0	  3.59148E+3	  0.00000E+0	
  8.49803E+0	  3.53893E+3	  0.00000E+0	
  8.51447E+0	  3.48721E+3	  0.00000E+0	
  8.53092E+0	  3.43630E+3	  0.00000E+0	
  8.54737E+0	  3.38618E+3	  0.00000E+0	
  8.56382E+0	  3.33684E+3	  0.00000E+0	
  8.58026E+0	  3.28826E+3	  0.00000E+0	
  8.59671E+0	  3.24043E+3	  0.00000E+0	
  8.61316E+0	  3.19333E+3	  0.00000E+0	
  8.62961E+0	  3.14694E+3	  0.00000E+0	
  8.64605E+0	  3.10125E+3	  0.00000E+0	
  8.66250E+0	  3.05625E+3	  0.00000E+0	
  8.67895E+0	  3.01192E+3	  0.00000E+0	
  8.69539E+0	  2.96825E+3	  0.00000E+0	
  8.71184E+0	  2.92522E+3	  0.00000E+0	
  8.72829E+0	  2.88283E+3	  0.00000E+0	
  8.74474E+0	  2.84105E+3	  0.00000E+0	
  8.76118E+0	  2.79989E+3	  0.00000E+0	
  8.77763E+0	  2.75932E+3	  0.00000E+0	
  8.79408E+0	  2.71933E+3	  0.00000E+0	
  8.81053E+0	  2.67992E+3	  0.00000E+0	
  8.82697E+0	  2.64107E+3	  0.00000E+0	
  8.84342E+0	  2.60277E+3	  0.00000E+0	
  8.85987E+0	  2.56501E+3	  0.00000E+0	
  8.87632E+0	  2.52778E+3	  0.00000E+0	
  8.89276E+0	  2.49107E+3	  0.00000E+0	
  8.90921E+0	  2.45488E+3	  0.00000E+0	
  8.92566E+0	  2.41918E+3	  0.00000E+0	
  8.94211E+0	  2.38398E+3	  0.00000E+0	
  8.95855E+0	  2.34926E+3	  0.00000E+0	
  8.97500E+0	  2.31502E+3	  0.00000E+0	
  8.99145E+0	  2.28124E+3	  0.00000E+0	
  9.00789E+0	  2.24792E+3	  0.00000E+0	
  9.02434E+0	  2.21505E+3	  0.00000E+0	
  9.04079E+0	  2.18263E+3	  0.00000E+0	
  9.05724E+0	  2.15063E+3	  0.00000E+0	
  9.07368E+0	  2.11907E+3	  0.00000E+0	
  9.09013E+0	  2.08792E+3	  0.00000E+0	
  9.10658E+0	  2.05719E+3	  0.00000E+0	
  9.12303E+0	  2.02686E+3	  0.00000E+0	
  9.13947E+0	  1.99693E+3	  0.00000E+0	
  9.15592E+0	  1.96740E+3	  0.00000E+0	
  9.17237E+0	  1.93825E+3	  0.00000E+0	
  9.18882E+0	  1.90948E+3	  0.00000E+0	
  9.20526E+0	  1.88108E+3	  0.00000E+0	
  9.22171E+0	  1.85305E+3	  0.00000E+0	
  9.23816E+0	  1.82538E+3	  0.00000E+0	
  9.25461E+0	  1.79806E+3	  0.00000E+0	
  9.27105E+0	  1.77110E+3	  0.00000E+0	
  9.28750E+0	  1.74448E+3	  0.00000E+0	
  9.30395E+0	  1.71820E+3	  0.00000E+0	
  9.32039E+0	  1.69226E+3	  0.00000E+0	
  9.33684E+0	  1.66665E+3	  0.00000E+0	
  9.35329E+0	  1.64136E+3	  0.00000E+0	
  9.36974E+0	  1.61639E+3	  0.00000E+0	
  9.38618E+0	  1.59173E+3	  0.00000E+0	
  9.40263E+0	  1.56739E+3	  0.00000E+0	
  9.41908E+0	  1.54335E+3	  0.00000E+0	
  9.43553E+0	  1.51962E+3	  0.00000E+0	
  9.45197E+0	  1.49618E+3	  0.00000E+0	
  9.46842E+0	  1.47304E+3	  0.00000E+0	
  9.48487E+0	  1.45019E+3	  0.00000E+0	
  9.50132E+0	  1.42762E+3	  0.00000E+0	
  9.51776E+0	  1.40533E+3	  0.00000E+0	
  9.53421E+0	  1.38333E+3	  0.00000E+0	
  9.55066E+0	  1.36159E+3	  0.00000E+0	
  9.56711E+0	  1.34013E+3	  0.00000E+0	
  9.58355E+0	  1.31894E+3	  0.00000E+0	
  9.60000E+0	  1.29802E+3	  0.00000E+0	
ELUstop :

MWDstart :
Molar mass	ELSD 1300	Integral[%]

  1.29802E+3	  0.00000E+0	  0.00000E+0	
  1.31893E+3	  0.00000E+0	  0.00000E+0	
  1.34017E+3	  0.00000E+0	  0.00000E+0	
  1.36176E+3	  0.00000E+0	  0.00000E+0	
  1.38369E+3	  0.00000E+0	  0.00000E+0	
  1.40598E+3	  0.00000E+0	  0.00000E+0	
  1.42862E+3	  0.00000E+0	  0.00000E+0	
  1.45163E+3	  0.00000E+0	  0.00000E+0	
  1.47502E+3	  0.00000E+0	  0.00000E+0	
  1.49877E+3	  0.00000E+0	  0.00000E+0	
  1.52291E+3	  0.00000E+0	  0.00000E+0	
  1.54744E+3	  0.00000E+0	  0.00000E+0	
  1.57237E+3	  0.00000E+0	  0.00000E+0	
  1.59770E+3	  0.00000E+0	  0.00000E+0	
  1.62343E+3	  0.00000E+0	  0.00000E+0	
  1.64958E+3	  0.00000E+0	  0.00000E+0	
  1.67615E+3	  0.00000E+0	  0.00000E+0	
  1.70315E+3	  0.00000E+0	  0.00000E+0	
  1.73058E+3	  0.00000E+0	  0.00000E+0	
  1.75845E+3	  0.00000E+0	  0.00000E+0	
  1.78678E+3	  0.00000E+0	  0.00000E+0	
  1.81556E+3	  0.00000E+0	  0.00000E+0	
  1.84480E+3	  0.00000E+0	  0.00000E+0	
  1.87451E+3	  0.00000E+0	  0.00000E+0	
  1.90471E+3	  0.00000E+0	  0.00000E+0	
  1.93539E+3	  0.00000E+0	  0.00000E+0	
  1.96656E+3	  0.00000E+0	  0.00000E+0	
  1.99824E+3	  0.00000E+0	  0.00000E+0	
  2.03042E+3	  0.00000E+0	  0.00000E+0	
  2.06313E+3	  0.00000E+0	  0.00000E+0	
  2.09636E+3	  0.00000E+0	  0.00000E+0	
  2.13012E+3	  0.00000E+0	  0.00000E+0	
  2.16443E+3	  0.00000E+0	  0.00000E+0	
  2.19929E+3	  0.00000E+0	  0.00000E+0	
  2.23472E+3	  0.00000E+0	  0.00000E+0	
  2.27071E+3	  0.00000E+0	  0.00000E+0	
  2.30729E+3	  0.00000E+0	  0.00000E+0	
  2.34445E+3	  0.00000E+0	  0.00000E+0	
  2.38221E+3	  0.00000E+0	  0.00000E+0	
  2.42059E+3	  0.00000E+0	  0.00000E+0	
  2.45957E+3	  0.00000E+0	  0.00000E+0	
  2.49919E+3	  0.00000E+0	  0.00000E+0	
  2.53944E+3	  0.00000E+0	  0.00000E+0	
  2.58035E+3	  0.00000E+0	  0.00000E+0	
  2.62191E+3	  0.00000E+0	  0.00000E+0	
  2.66414E+3	  0.00000E+0	  0.00000E+0	
  2.70705E+3	  0.00000E+0	  0.00000E+0	
  2.75066E+3	  0.00000E+0	  0.00000E+0	
  2.79496E+3	  0.00000E+0	  0.00000E+0	
  2.83998E+3	  0.00000E+0	  0.00000E+0	
  2.88572E+3	  0.00000E+0	  0.00000E+0	
  2.93220E+3	  0.00000E+0	  0.00000E+0	
  2.97943E+3	  0.00000E+0	  0.00000E+0	
  3.02742E+3	  0.00000E+0	  0.00000E+0	
  3.07619E+3	  0.00000E+0	  0.00000E+0	
  3.12573E+3	  0.00000E+0	  0.00000E+0	
  3.17608E+3	  0.00000E+0	  0.00000E+0	
  3.22724E+3	  0.00000E+0	  0.00000E+0	
  3.27922E+3	  0.00000E+0	  0.00000E+0	
  3.33204E+3	  0.00000E+0	  0.00000E+0	
  3.38571E+3	  0.00000E+0	  0.00000E+0	
  3.44024E+3	  0.00000E+0	  0.00000E+0	
  3.49565E+3	  0.00000E+0	  0.00000E+0	
  3.55196E+3	  0.00000E+0	  0.00000E+0	
  3.60917E+3	  0.00000E+0	  0.00000E+0	
  3.66730E+3	  0.00000E+0	  0.00000E+0	
  3.72637E+3	  0.00000E+0	  0.00000E+0	
  3.78639E+3	  0.00000E+0	  0.00000E+0	
  3.84738E+3	  0.00000E+0	  0.00000E+0	
  3.90935E+3	  0.00000E+0	  0.00000E+0	
  3.97232E+3	  0.00000E+0	  0.00000E+0	
  4.03630E+3	  0.00000E+0	  0.00000E+0	
  4.10132E+3	  0.00000E+0	  0.00000E+0	
  4.16738E+3	  4.16907E-4	  2.89543E-4	
  4.23450E+3	  8.91311E-4	  9.08560E-4	
  4.30271E+3	  0.00000E+0	  9.08560E-4	
  4.37201E+3	  0.00000E+0	  9.08560E-4	
  4.44243E+3	  0.00000E+0	  9.08560E-4	
  4.51398E+3	  0.00000E+0	  9.08560E-4	
  4.58669E+3	  1.70458E-3	  2.09239E-3	
  4.66057E+3	  1.13067E-2	  9.94495E-3	
  4.73564E+3	  1.39105E-2	  1.96058E-2	
  4.81192E+3	  1.23307E-2	  2.81695E-2	
  4.88942E+3	  2.03572E-2	  4.23077E-2	
  4.96818E+3	  2.31877E-2	  5.84115E-2	
  5.04820E+3	  3.25167E-2	  8.09945E-2	
  5.12951E+3	  4.07543E-2	  1.09298E-1	
  5.21213E+3	  5.06131E-2	  1.44449E-1	
  5.29608E+3	  5.37376E-2	  1.81770E-1	
  5.38139E+3	  6.46460E-2	  2.26667E-1	
  5.46807E+3	  8.05456E-2	  2.82606E-1	
  5.55614E+3	  9.52755E-2	  3.48775E-1	
  5.64563E+3	  1.12792E-1	  4.27109E-1	
  5.73657E+3	  1.28661E-1	  5.16465E-1	
  5.82897E+3	  1.47655E-1	  6.19012E-1	
  5.92286E+3	  1.72035E-1	  7.38490E-1	
  6.01826E+3	  1.95681E-1	  8.74391E-1	
  6.11519E+3	  2.21728E-1	  1.02838E+0	
  6.21369E+3	  2.52729E-1	  1.20390E+0	
  6.31378E+3	  3.07146E-1	  1.41722E+0	
  6.41547E+3	  3.78770E-1	  1.68027E+0	
  6.51881E+3	  4.55209E-1	  1.99642E+0	
  6.62381E+3	  5.46498E-1	  2.37596E+0	
  6.73050E+3	  6.55346E-1	  2.83110E+0	
  6.83890E+3	  7.99979E-1	  3.38669E+0	
  6.94906E+3	  9.72180E-1	  4.06187E+0	
  7.06099E+3	  1.18977E+0	  4.88816E+0	
  7.17472E+3	  1.48004E+0	  5.91605E+0	
  7.29028E+3	  1.85300E+0	  7.20297E+0	
  7.40771E+3	  2.33564E+0	  8.82507E+0	
  7.52703E+3	  2.96753E+0	  1.08860E+1	
  7.64826E+3	  3.76587E+0	  1.35014E+1	
  7.77146E+3	  4.64409E+0	  1.67268E+1	
  7.89663E+3	  5.64293E+0	  2.06458E+1	
  8.02382E+3	  6.82549E+0	  2.53861E+1	
  8.15306E+3	  8.16415E+0	  3.10561E+1	
  8.28439E+3	  9.57080E+0	  3.77031E+1	
  8.41782E+3	  1.08036E+1	  4.52062E+1	
  8.55341E+3	  1.17275E+1	  5.33510E+1	
  8.69118E+3	  1.20554E+1	  6.17234E+1	
  8.83117E+3	  1.17282E+1	  6.98687E+1	
  8.97341E+3	  1.08084E+1	  7.73751E+1	
  9.11795E+3	  9.30810E+0	  8.38396E+1	
  9.26481E+3	  7.35006E+0	  8.89442E+1	
  9.41404E+3	  5.44621E+0	  9.27266E+1	
  9.56567E+3	  3.79485E+0	  9.53622E+1	
  9.71975E+3	  2.59764E+0	  9.71662E+1	
  9.87631E+3	  1.70543E+0	  9.83507E+1	
  1.00354E+4	  1.04963E+0	  9.90796E+1	
  1.01970E+4	  6.05874E-1	  9.95004E+1	
  1.03613E+4	  3.39193E-1	  9.97360E+1	
  1.05282E+4	  1.81983E-1	  9.98624E+1	
  1.06977E+4	  1.02018E-1	  9.99332E+1	
  1.08700E+4	  4.40196E-2	  9.99638E+1	
  1.10451E+4	  1.43598E-2	  9.99738E+1	
  1.12230E+4	  2.76980E-3	  9.99757E+1	
  1.14038E+4	  0.00000E+0	  9.99757E+1	
  1.15875E+4	  0.00000E+0	  9.99757E+1	
  1.17741E+4	  0.00000E+0	  9.99757E+1	
  1.19638E+4	  0.00000E+0	  9.99757E+1	
  1.21565E+4	  0.00000E+0	  9.99757E+1	
  1.23523E+4	  0.00000E+0	  9.99757E+1	
  1.25512E+4	  0.00000E+0	  9.99757E+1	
  1.27534E+4	  0.00000E+0	  9.99757E+1	
  1.29588E+4	  0.00000E+0	  9.99757E+1	
  1.31676E+4	  1.96375E-3	  9.99771E+1	
  1.33796E+4	  7.01116E-3	  9.99819E+1	
  1.35952E+4	  6.85785E-3	  9.99867E+1	
  1.38141E+4	  1.26525E-3	  9.99876E+1	
  1.40366E+4	  5.81413E-3	  9.99916E+1	
  1.42627E+4	  7.96488E-3	  9.99971E+1	
  1.44925E+4	  4.10960E-3	  1.00000E+2	
  1.47259E+4	  2.34050E-20	  1.00000E+2	
MWDstop :

